# This list of sources to mask was generated from TC's lists at
# /spt3gsoftware/sources/spt3g_1500d_source_list_tc_05mar19.txt and
# /spt3gsoftware/sources/spt3g_1500d_decrement_list_tc_01apr19.txt.
# I removed all the sources with a "bad flag" value of 1, as well
# as all those with a S/N less than 10 in the 90 GHz band.  I also
# re-formatted to work with the 3g mapmaker.  Note that
# sources are listed first, followed by SZ clusters.  The radius
# value was taken from SPTpol's point source list, and may change
# slightly when 3G's beam measurements become more accurate.
# - Kyle Ferguson, Apr 9, 2019
#
#
# Index	 RA (deg)	 Dec (deg)	 Radius (deg)	 Flux (mJy)
#
1	 0.23700	 -45.97400	 0.0833		 20.97800
2	 0.68600	 -48.27100	 0.0833		 13.05100
3	 0.72200	 -56.35600	 0.0833		 12.99200
4	 0.72300	 -59.80400	 0.0833		 48.92900
5	 0.76400	 -55.50300	 0.0833		 23.05700
6	 0.76700	 -52.96700	 0.0833		 11.67700
7	 0.78700	 -54.75100	 0.0833		 41.97000
8	 0.81100	 -59.09800	 0.0833		 12.89800
9	 0.84000	 -57.96000	 0.0833		 11.45700
10	 0.98400	 -53.73200	 0.0833		 25.96500
11	 1.02400	 -43.76100	 0.0833		 82.55800
12	 1.05100	 -52.91900	 0.0833		 26.45200
13	 1.07900	 -55.78400	 0.0833		 19.28800
14	 1.12200	 -41.96100	 0.0833		 26.51000
15	 1.14500	 -47.61100	 0.0833		 225.20800
16	 1.19100	 -48.41900	 0.0833		 12.40800
17	 1.20700	 -66.25200	 0.0833		 15.78600
18	 1.35300	 -55.70500	 0.0833		 11.80900
19	 1.36900	 -62.38300	 0.0833		 14.53300
20	 1.48900	 -56.47800	 0.0833		 42.43000
21	 1.50400	 -42.58800	 0.0833		 13.65700
22	 1.51900	 -60.59600	 0.0833		 11.90600
23	 1.55700	 -56.34800	 0.0833		 11.53100
24	 1.57400	 -42.76500	 0.0833		 38.50200
25	 1.69500	 -46.36400	 0.0833		 12.01600
26	 1.81100	 -51.39200	 0.0833		 13.02300
27	 1.84100	 -61.21800	 0.0833		 58.43200
28	 1.92400	 -45.82500	 0.0833		 33.94700
29	 2.00100	 -52.73100	 0.0833		 189.92000
30	 2.14800	 -50.16500	 0.0833		 17.01400
31	 2.15300	 -46.33500	 0.0833		 28.35400
32	 2.28700	 -46.22600	 0.0833		 78.39000
33	 2.29400	 -54.97000	 0.0833		 13.52700
34	 2.33400	 -51.50600	 0.0833		 22.75700
35	 2.41200	 -63.95700	 0.0833		 37.34800
36	 2.48800	 -57.02100	 0.0833		 11.84600
37	 2.52900	 -68.85100	 0.0833		 13.02800
38	 2.60100	 -41.50900	 0.0833		 15.90800
39	 2.78800	 -50.19700	 0.0833		 38.75500
40	 2.84400	 -64.15200	 0.0833		 14.68600
41	 2.96200	 -41.10400	 0.0833		 50.61800
42	 3.34300	 -50.09200	 0.0833		 124.83800
43	 3.60900	 -56.64200	 0.0833		 25.44500
44	 3.68200	 -51.37700	 0.0833		 12.90700
45	 3.72700	 -64.46800	 0.0833		 15.37100
46	 3.92500	 -61.95100	 0.0833		 12.88200
47	 3.96600	 -45.19000	 0.0833		 21.46800
48	 4.01300	 -63.16900	 0.0833		 11.69600
49	 4.44600	 -69.56000	 0.0833		 12.46300
50	 4.63200	 -42.04300	 0.0833		 182.17800
51	 4.67300	 -45.96900	 0.0833		 112.72800
52	 4.69600	 -51.25300	 0.0833		 39.60400
53	 4.71100	 -49.50300	 0.0833		 22.03300
54	 4.82800	 -62.98600	 0.0833		 17.63000
55	 4.86100	 -56.69800	 0.0833		 177.41600
56	 4.88000	 -42.44900	 0.0833		 24.79100
57	 4.93600	 -49.37100	 0.0833		 14.31300
58	 4.98100	 -62.88000	 0.0833		 11.88000
59	 5.08800	 -48.79000	 0.0833		 24.59600
60	 5.17800	 -56.55700	 0.0833		 26.16400
61	 5.49100	 -51.67600	 0.0833		 17.17400
62	 5.53000	 -53.87900	 0.0833		 14.63900
63	 5.63200	 -51.89100	 0.0833		 37.81600
64	 5.75800	 -56.83700	 0.0833		 63.27500
65	 5.78800	 -65.11200	 0.0833		 14.10800
66	 5.79400	 -63.07600	 0.0833		 15.94300
67	 5.93200	 -59.51000	 0.0833		 75.51100
68	 5.95500	 -58.20400	 0.0833		 13.69200
69	 6.03700	 -68.34300	 0.0833		 308.85300
70	 6.17400	 -42.04200	 0.0833		 16.88300
71	 6.28100	 -68.38400	 0.0833		 20.59000
72	 6.28900	 -54.46400	 0.0833		 28.27700
73	 6.32400	 -60.47500	 0.0833		 17.01100
74	 6.43600	 -48.07000	 0.0833		 148.31100
75	 6.62700	 -47.68400	 0.0833		 16.15400
76	 6.66100	 -49.32000	 0.0833		 14.13200
77	 6.70600	 -51.70400	 0.0833		 12.18600
78	 6.80100	 -49.85000	 0.0833		 12.11100
79	 6.80800	 -45.34600	 0.0833		 15.82900
80	 6.92500	 -66.05900	 0.0833		 18.40700
81	 7.04600	 -44.26400	 0.0833		 36.43400
82	 7.18900	 -70.74900	 0.0833		 36.13800
83	 7.25900	 -67.92500	 0.0833		 23.79100
84	 7.26400	 -51.94700	 0.0833		 13.64100
85	 7.29500	 -56.59200	 0.0833		 23.76700
86	 7.49000	 -51.96100	 0.0833		 15.13900
87	 7.56700	 -42.42200	 0.0833		 450.96200
88	 7.63200	 -54.63100	 0.0833		 23.41200
89	 7.88600	 -51.72600	 0.0833		 47.50300
90	 7.92200	 -70.54700	 0.0833		 15.65500
91	 8.14600	 -42.10200	 0.0833		 13.09400
92	 8.44500	 -42.61300	 0.0833		 53.35100
93	 8.46900	 -56.94700	 0.0833		 35.34300
94	 8.49500	 -65.43500	 0.0833		 11.45100
95	 8.51200	 -41.28100	 0.0833		 53.47400
96	 8.53500	 -70.42400	 0.0833		 23.43800
97	 8.64800	 -53.11900	 0.0833		 11.49500
98	 8.77200	 -57.43900	 0.0833		 21.13800
99	 9.00600	 -69.00600	 0.0833		 21.98100
100	 9.31400	 -48.14000	 0.0833		 30.04600
101	 9.36100	 -59.30200	 0.0833		 25.30600
102	 9.39100	 -53.12900	 0.0833		 35.65300
103	 9.40300	 -47.55100	 0.0833		 13.88700
104	 9.49100	 -65.93100	 0.0833		 13.72700
105	 9.60100	 -41.88100	 0.0833		 13.16700
106	 9.69100	 -62.51800	 0.0833		 40.39400
107	 9.72400	 -42.68000	 0.0833		 13.10900
108	 10.02700	 -52.06600	 0.0833		 14.60600
109	 10.03500	 -59.06500	 0.0833		 51.84400
110	 10.12900	 -42.89400	 0.0833		 30.70500
111	 10.15300	 -50.96900	 0.0833		 12.91500
112	 10.20200	 -56.21800	 0.0833		 13.78000
113	 10.53100	 -44.24100	 0.0833		 31.86700
114	 10.59800	 -43.56900	 0.0833		 55.11900
115	 10.60600	 -68.97600	 0.0833		 20.69400
116	 10.86900	 -60.85100	 0.0833		 19.31500
117	 11.33600	 -54.79500	 0.0833		 19.09300
118	 11.42100	 -48.78300	 0.0833		 38.76800
119	 11.49100	 -44.90900	 0.0833		 12.95000
120	 11.56200	 -42.13600	 0.0833		 108.19800
121	 11.58200	 -50.11300	 0.0833		 16.73300
122	 11.64700	 -70.97500	 0.0833		 27.05600
123	 11.67500	 -69.51800	 0.0833		 21.76100
124	 11.73500	 -61.62600	 0.0833		 19.21200
125	 11.75900	 -55.94200	 0.0833		 13.57900
126	 12.01900	 -42.55600	 0.0833		 12.14900
127	 12.18300	 -58.28400	 0.0833		 12.68400
128	 12.26700	 -55.35500	 0.0833		 56.46800
129	 12.27300	 -64.42100	 0.0833		 12.52800
130	 12.31400	 -44.96000	 0.0833		 126.81400
131	 12.42000	 -70.86300	 0.0833		 174.70300
132	 12.44400	 -54.04900	 0.0833		 16.72800
133	 12.50000	 -57.64300	 0.0833		 571.37800
134	 12.72900	 -49.68100	 0.0833		 26.29300
135	 12.78300	 -42.45100	 0.0833		 341.80500
136	 12.82600	 -62.70100	 0.0833		 17.91000
137	 13.05600	 -43.11700	 0.0833		 31.93200
138	 13.14400	 -62.23100	 0.0833		 16.38800
139	 13.16600	 -53.19900	 0.0833		 15.52800
140	 13.17600	 -49.79700	 0.0833		 33.91600
141	 13.17600	 -44.78900	 0.0833		 25.54100
142	 13.23200	 -60.56700	 0.0833		 12.25600
143	 13.55500	 -62.25600	 0.0833		 29.35100
144	 13.78400	 -41.42600	 0.0833		 18.59300
145	 13.95600	 -61.39300	 0.0833		 33.18800
146	 13.95700	 -61.60800	 0.0833		 48.79000
147	 14.01300	 -52.70100	 0.0833		 40.26700
148	 14.04500	 -44.56700	 0.0833		 15.86000
149	 14.16700	 -52.97800	 0.0833		 14.04600
150	 14.18300	 -46.68000	 0.0833		 35.88900
151	 14.18600	 -44.85800	 0.0833		 58.43400
152	 14.26400	 -47.45300	 0.0833		 11.86900
153	 14.26600	 -52.24200	 0.0833		 47.83300
154	 14.33100	 -70.67200	 0.0833		 69.87500
155	 14.33200	 -48.90500	 0.0833		 13.20300
156	 14.68600	 -59.53100	 0.0833		 12.36700
157	 14.69100	 -47.24600	 0.0833		 12.98000
158	 14.69500	 -56.98900	 0.0833		 785.52800
159	 14.72700	 -52.32700	 0.0833		 52.31100
160	 14.78200	 -60.04200	 0.0833		 12.08200
161	 14.80300	 -57.71600	 0.0833		 12.77000
162	 14.84000	 -61.44600	 0.0833		 36.64600
163	 14.92200	 -63.47600	 0.0833		 41.46100
164	 15.16400	 -47.97700	 0.0833		 13.59200
165	 15.19100	 -50.54300	 0.0833		 20.62900
166	 15.31900	 -62.54900	 0.0833		 133.94400
167	 15.42300	 -45.73200	 0.0833		 12.00600
168	 15.45100	 -56.13800	 0.0833		 16.17100
169	 15.54400	 -56.62000	 0.0833		 139.73000
170	 15.77000	 -51.15800	 0.0833		 33.82900
171	 15.85500	 -45.82500	 0.0833		 35.86800
172	 15.89300	 -64.65000	 0.0833		 372.75400
173	 15.96500	 -63.84800	 0.0833		 43.08100
174	 16.03200	 -56.95700	 0.0833		 61.45100
175	 16.38700	 -61.23600	 0.0833		 16.83000
176	 16.51600	 -47.90400	 0.0833		 28.88300
177	 16.63100	 -46.65000	 0.0833		 23.95700
178	 16.72600	 -48.52900	 0.0833		 28.70500
179	 16.79400	 -55.34600	 0.0833		 15.03100
180	 16.97100	 -68.71800	 0.0833		 15.84000
181	 17.31800	 -60.83000	 0.0833		 106.05400
182	 17.40200	 -59.80400	 0.0833		 49.75900
183	 17.57600	 -63.26400	 0.0833		 87.66200
184	 17.68100	 -45.12000	 0.0833		 37.57500
185	 17.75600	 -47.82300	 0.0833		 19.83000
186	 17.93200	 -68.99300	 0.0833		 15.08900
187	 18.08400	 -66.57500	 0.0833		 314.71300
188	 18.16600	 -43.08700	 0.0833		 17.20200
189	 18.30400	 -67.88000	 0.0833		 60.09200
190	 18.34400	 -53.50100	 0.0833		 18.29700
191	 18.50600	 -70.41800	 0.0833		 20.95000
192	 18.61600	 -43.63500	 0.0833		 13.38600
193	 18.74200	 -62.48400	 0.0833		 12.78300
194	 18.91800	 -58.41600	 0.0833		 14.70200
195	 18.97700	 -50.50200	 0.0833		 36.45900
196	 19.07900	 -47.74100	 0.0833		 11.57200
197	 19.09700	 -46.55000	 0.0833		 20.75000
198	 19.10100	 -47.39000	 0.0833		 13.93200
199	 19.20200	 -54.78000	 0.0833		 23.44300
200	 19.23900	 -65.36300	 0.0833		 56.28900
201	 19.54700	 -69.76000	 0.0833		 31.76900
202	 19.58600	 -69.85700	 0.0833		 14.20300
203	 19.58800	 -45.66400	 0.0833		 12.47100
204	 19.60000	 -60.13300	 0.0833		 27.28100
205	 19.61300	 -51.26100	 0.0833		 54.98900
206	 19.66000	 -45.45800	 0.0833		 15.48200
207	 19.68200	 -41.05000	 0.0833		 29.79300
208	 19.70200	 -48.35900	 0.0833		 15.13500
209	 19.71800	 -42.06700	 0.0833		 19.08500
210	 19.77100	 -69.49100	 0.0833		 19.72400
211	 19.92800	 -68.15300	 0.0833		 11.82500
212	 19.95300	 -53.95800	 0.0833		 62.66900
213	 20.03000	 -52.18700	 0.0833		 27.08500
214	 20.42600	 -63.15100	 0.0833		 24.72900
215	 20.54900	 -69.56100	 0.0833		 13.51600
216	 20.73200	 -44.86800	 0.0833		 20.19500
217	 20.94800	 -46.39500	 0.0833		 69.01700
218	 20.98800	 -41.52600	 0.0833		 12.66700
219	 21.23300	 -51.22500	 0.0833		 89.39700
220	 21.25500	 -53.42100	 0.0833		 39.91400
221	 21.25700	 -70.30900	 0.0833		 21.36300
222	 21.38500	 -59.01300	 0.0833		 13.64300
223	 21.42100	 -61.05400	 0.0833		 19.05400
224	 21.59400	 -51.05800	 0.0833		 63.26300
225	 21.80800	 -48.23100	 0.0833		 346.56900
226	 21.97600	 -51.61300	 0.0833		 23.10600
227	 21.97900	 -53.49900	 0.0833		 36.07700
228	 22.05400	 -59.56300	 0.0833		 19.27400
229	 22.08500	 -56.83000	 0.0833		 78.63500
230	 22.13600	 -52.92500	 0.0833		 20.28200
231	 22.13900	 -47.94200	 0.0833		 12.55800
232	 22.25000	 -54.22700	 0.0833		 12.02400
233	 22.39000	 -43.15700	 0.0833		 22.86400
234	 22.59700	 -46.08500	 0.0833		 13.23300
235	 22.70500	 -68.49800	 0.0833		 13.10200
236	 22.95100	 -51.86900	 0.0833		 24.21900
237	 22.99300	 -63.73700	 0.0833		 28.85500
238	 23.11600	 -61.77600	 0.0833		 18.41100
239	 23.13000	 -46.08600	 0.0833		 12.53700
240	 23.17000	 -65.38800	 0.0833		 14.13700
241	 23.24900	 -44.52100	 0.0833		 54.35600
242	 23.26600	 -44.77300	 0.0833		 24.45000
243	 23.26700	 -52.00500	 0.0833		 1026.66500
244	 23.27200	 -44.24800	 0.0833		 18.77200
245	 23.38600	 -44.74500	 0.0833		 48.46300
246	 23.39600	 -52.35400	 0.0833		 25.91200
247	 23.53200	 -55.43900	 0.0833		 17.73400
248	 23.63200	 -53.92300	 0.0833		 14.94500
249	 23.82300	 -50.09500	 0.0833		 29.64500
250	 23.84600	 -48.53400	 0.0833		 18.65300
251	 23.91200	 -51.83200	 0.0833		 31.78800
252	 23.92800	 -42.29000	 0.0833		 54.08200
253	 23.94600	 -52.74300	 0.0833		 22.89500
254	 23.98600	 -66.04300	 0.0833		 16.80000
255	 24.35700	 -54.66400	 0.0833		 13.23800
256	 24.63700	 -46.24500	 0.0833		 28.20600
257	 24.65900	 -42.53700	 0.0833		 20.75400
258	 24.89000	 -69.15300	 0.0833		 25.10100
259	 24.91500	 -47.53900	 0.0833		 48.57600
260	 24.95200	 -52.30000	 0.0833		 46.24600
261	 24.97600	 -43.92600	 0.0833		 44.72600
262	 25.18500	 -47.42900	 0.0833		 18.11700
263	 25.37400	 -54.46700	 0.0833		 12.96000
264	 25.42200	 -56.84700	 0.0833		 32.25600
265	 25.44900	 -47.61200	 0.0833		 30.75600
266	 25.52300	 -42.10900	 0.0833		 27.63700
267	 25.60800	 -57.50100	 0.0833		 81.56500
268	 25.72700	 -68.91000	 0.0833		 15.34900
269	 25.74300	 -60.74800	 0.0833		 48.40500
270	 25.81700	 -57.36200	 0.0833		 22.94300
271	 25.86200	 -66.19300	 0.0833		 30.10200
272	 26.07200	 -64.36000	 0.0833		 136.35200
273	 26.29400	 -55.72900	 0.0833		 18.39600
274	 26.48100	 -67.77600	 0.0833		 17.41200
275	 26.68100	 -60.12000	 0.0833		 11.43200
276	 26.69400	 -52.04700	 0.0833		 94.84800
277	 26.84000	 -42.58400	 0.0833		 11.97100
278	 27.11200	 -69.66000	 0.0833		 12.96900
279	 27.46000	 -49.47700	 0.0833		 12.76600
280	 27.58900	 -55.41700	 0.0833		 11.47600
281	 27.68400	 -68.37900	 0.0833		 21.59900
282	 27.71200	 -60.73600	 0.0833		 18.69900
283	 27.73800	 -58.50000	 0.0833		 23.52700
284	 28.02200	 -46.87800	 0.0833		 31.64400
285	 28.38600	 -49.05300	 0.0833		 22.56400
286	 28.48700	 -54.11700	 0.0833		 34.66900
287	 28.57400	 -51.13500	 0.0833		 80.64800
288	 28.63500	 -66.06800	 0.0833		 124.67100
289	 28.68600	 -69.65800	 0.0833		 13.05300
290	 28.76500	 -41.91200	 0.0833		 19.22700
291	 28.79700	 -64.42000	 0.0833		 36.41500
292	 28.98000	 -51.43100	 0.0833		 12.90000
293	 29.18800	 -47.74400	 0.0833		 20.29800
294	 29.20100	 -54.66600	 0.0833		 42.56700
295	 29.28600	 -46.01800	 0.0833		 54.32400
296	 29.33600	 -54.37900	 0.0833		 17.46100
297	 29.40100	 -49.26000	 0.0833		 19.72700
298	 29.41800	 -42.59100	 0.0833		 21.24900
299	 29.45800	 -46.24600	 0.0833		 55.62900
300	 29.54500	 -56.50400	 0.0833		 18.80300
301	 29.56200	 -50.07700	 0.0833		 43.41200
302	 29.57100	 -47.21800	 0.0833		 20.44500
303	 29.61000	 -58.18400	 0.0833		 66.83900
304	 29.65900	 -64.18900	 0.0833		 42.47500
305	 29.66400	 -64.31900	 0.0833		 37.16700
306	 29.73800	 -63.58000	 0.0833		 23.38800
307	 29.77000	 -45.26700	 0.0833		 38.15600
308	 29.80300	 -53.15200	 0.0833		 13.69800
309	 29.80400	 -47.10900	 0.0833		 14.75900
310	 29.83000	 -60.93100	 0.0833		 13.97200
311	 30.21000	 -50.78200	 0.0833		 12.19600
312	 30.28800	 -66.63300	 0.0833		 193.88000
313	 30.68000	 -69.20600	 0.0833		 20.58600
314	 30.72800	 -44.27800	 0.0833		 14.13500
315	 30.81900	 -55.95500	 0.0833		 28.65100
316	 30.91400	 -43.83700	 0.0833		 23.10900
317	 30.98800	 -68.77700	 0.0833		 19.45100
318	 31.18800	 -50.06600	 0.0833		 15.49000
319	 31.19300	 -55.05100	 0.0833		 31.54200
320	 31.41200	 -65.82400	 0.0833		 15.41000
321	 31.45500	 -55.85900	 0.0833		 19.35500
322	 31.67200	 -61.72400	 0.0833		 112.15400
323	 31.81300	 -48.38600	 0.0833		 13.28100
324	 31.82600	 -70.47200	 0.0833		 17.61100
325	 31.97200	 -68.62700	 0.0833		 102.69700
326	 32.00900	 -62.27400	 0.0833		 36.82400
327	 32.14100	 -68.10700	 0.0833		 24.21900
328	 32.30600	 -62.49000	 0.0833		 11.67300
329	 32.33200	 -52.49300	 0.0833		 27.45500
330	 32.52600	 -43.12200	 0.0833		 17.05800
331	 32.55500	 -65.78000	 0.0833		 21.67300
332	 32.55500	 -66.59300	 0.0833		 15.28300
333	 32.68500	 -51.02200	 0.0833		 3819.56300
334	 32.70500	 -43.69300	 0.0833		 14.44500
335	 32.91500	 -43.00300	 0.0833		 11.72000
336	 33.08500	 -43.48100	 0.0833		 17.97200
337	 33.14600	 -50.07600	 0.0833		 12.06200
338	 33.50300	 -61.30000	 0.0833		 18.18500
339	 33.53000	 -70.44500	 0.0833		 98.39300
340	 33.54500	 -58.37000	 0.0833		 65.71900
341	 33.57200	 -61.82400	 0.0833		 194.28700
342	 33.57800	 -51.47800	 0.0833		 12.00900
343	 33.74500	 -60.20600	 0.0833		 12.24600
344	 33.80100	 -67.68100	 0.0833		 23.55300
345	 33.80300	 -64.24000	 0.0833		 12.45000
346	 33.80400	 -65.33600	 0.0833		 51.34200
347	 33.82300	 -51.08700	 0.0833		 14.36600
348	 34.00700	 -52.00800	 0.0833		 34.84000
349	 34.03800	 -55.75600	 0.0833		 12.29500
350	 34.12300	 -45.46000	 0.0833		 13.23800
351	 34.18000	 -44.78700	 0.0833		 25.32400
352	 34.18200	 -47.82500	 0.0833		 51.61500
353	 34.21400	 -66.60500	 0.0833		 31.43300
354	 34.29000	 -57.30700	 0.0833		 25.57500
355	 34.36400	 -59.86300	 0.0833		 26.76100
356	 34.52200	 -49.34900	 0.0833		 17.18200
357	 34.55000	 -47.30600	 0.0833		 31.88100
358	 34.64000	 -55.06600	 0.0833		 30.97500
359	 34.84000	 -48.10400	 0.0833		 14.66500
360	 34.89800	 -42.96600	 0.0833		 25.33200
361	 34.93000	 -68.10000	 0.0833		 53.68700
362	 34.99500	 -58.66600	 0.0833		 14.89900
363	 35.04100	 -70.36600	 0.0833		 18.86000
364	 35.23200	 -63.50300	 0.0833		 194.60800
365	 35.29600	 -49.58400	 0.0833		 15.28000
366	 35.36700	 -47.22200	 0.0833		 39.31800
367	 35.39000	 -58.62500	 0.0833		 31.96300
368	 35.46600	 -56.79400	 0.0833		 50.29500
369	 35.49200	 -64.09100	 0.0833		 30.56100
370	 35.55600	 -51.11200	 0.0833		 23.46200
371	 35.56900	 -66.19500	 0.0833		 16.75000
372	 35.70200	 -60.68800	 0.0833		 22.48600
373	 35.77200	 -53.71500	 0.0833		 30.66700
374	 35.87300	 -53.79700	 0.0833		 115.77900
375	 35.88000	 -56.11100	 0.0833		 17.46000
376	 35.91900	 -56.00900	 0.0833		 13.12400
377	 35.97900	 -59.23500	 0.0833		 11.91700
378	 36.08100	 -70.71600	 0.0833		 55.20400
379	 36.21100	 -69.90200	 0.0833		 22.14400
380	 36.37100	 -52.43400	 0.0833		 30.17000
381	 36.42600	 -45.06100	 0.0833		 197.52600
382	 36.61000	 -59.24500	 0.0833		 12.00000
383	 36.66700	 -42.93600	 0.0833		 14.02100
384	 36.70900	 -52.88400	 0.0833		 12.58000
385	 36.71200	 -61.34900	 0.0833		 15.69900
386	 36.71800	 -60.27200	 0.0833		 11.66600
387	 36.77700	 -63.52500	 0.0833		 15.17900
388	 36.91500	 -44.43400	 0.0833		 16.92400
389	 36.97800	 -61.97000	 0.0833		 12.95400
390	 37.00600	 -49.03000	 0.0833		 31.72800
391	 37.08500	 -55.76900	 0.0833		 495.45100
392	 37.19900	 -48.67400	 0.0833		 31.23900
393	 37.29000	 -69.36400	 0.0833		 26.27900
394	 37.29600	 -54.05900	 0.0833		 76.76400
395	 37.34900	 -52.54400	 0.0833		 54.57700
396	 37.50700	 -43.38400	 0.0833		 12.59900
397	 37.53600	 -45.06800	 0.0833		 14.24300
398	 37.54400	 -59.85500	 0.0833		 12.71800
399	 37.55300	 -62.24100	 0.0833		 45.23300
400	 37.79000	 -57.92000	 0.0833		 66.01900
401	 37.79500	 -47.77500	 0.0833		 285.93600
402	 37.82500	 -58.68700	 0.0833		 50.44600
403	 37.93100	 -67.88500	 0.0833		 18.85500
404	 38.43200	 -44.32400	 0.0833		 15.99500
405	 38.48000	 -50.51000	 0.0833		 28.03900
406	 38.48000	 -46.53200	 0.0833		 12.52000
407	 38.77200	 -47.62400	 0.0833		 32.23800
408	 38.80500	 -47.16400	 0.0833		 113.83800
409	 39.00100	 -41.78000	 0.0833		 13.99300
410	 39.07900	 -44.08200	 0.0833		 14.91400
411	 39.22700	 -61.60300	 0.0833		 199.34600
412	 39.44300	 -67.46700	 0.0833		 11.94100
413	 39.84000	 -51.14200	 0.0833		 27.13900
414	 40.09800	 -48.38200	 0.0833		 20.72900
415	 40.16200	 -54.49500	 0.0833		 19.94900
416	 40.30500	 -59.17400	 0.0833		 11.47000
417	 40.39600	 -49.42100	 0.0833		 45.56500
418	 40.58100	 -55.12500	 0.0833		 16.14400
419	 40.64200	 -42.03700	 0.0833		 12.49000
420	 40.71200	 -47.75800	 0.0833		 28.56900
421	 40.79900	 -51.09200	 0.0833		 38.78200
422	 40.85400	 -57.65000	 0.0833		 24.60700
423	 40.86300	 -56.21400	 0.0833		 18.37000
424	 40.97500	 -45.71800	 0.0833		 16.31800
425	 41.11400	 -69.26600	 0.0833		 11.82400
426	 41.16600	 -58.33200	 0.0833		 18.15200
427	 41.22200	 -59.80100	 0.0833		 24.68400
428	 41.41300	 -52.96900	 0.0833		 15.46600
429	 41.47000	 -45.00100	 0.0833		 251.90000
430	 41.49600	 -46.86000	 0.0833		 715.32900
431	 41.55500	 -49.90300	 0.0833		 92.91400
432	 41.66600	 -59.92400	 0.0833		 22.46400
433	 41.68700	 -50.43400	 0.0833		 16.08300
434	 41.76500	 -47.25900	 0.0833		 24.06400
435	 41.80200	 -63.42500	 0.0833		 66.38400
436	 42.44800	 -55.94100	 0.0833		 25.11300
437	 42.65600	 -63.91600	 0.0833		 38.47500
438	 42.79400	 -52.14000	 0.0833		 18.49500
439	 42.80700	 -68.03000	 0.0833		 18.50100
440	 42.81400	 -51.57300	 0.0833		 18.22900
441	 42.86200	 -60.00200	 0.0833		 241.24700
442	 42.87100	 -66.61000	 0.0833		 19.58100
443	 42.87600	 -42.61200	 0.0833		 18.38900
444	 42.93100	 -64.00500	 0.0833		 18.05200
445	 42.99500	 -67.29500	 0.0833		 18.24800
446	 43.10500	 -44.48000	 0.0833		 14.46500
447	 43.12100	 -50.08300	 0.0833		 16.37400
448	 43.12700	 -55.13300	 0.0833		 13.31000
449	 43.20800	 -71.07000	 0.0833		 26.86300
450	 43.21200	 -64.04700	 0.0833		 23.74600
451	 43.36500	 -54.70000	 0.0833		 829.62300
452	 43.44600	 -65.21600	 0.0833		 18.37400
453	 43.52800	 -59.43200	 0.0833		 13.86900
454	 43.61600	 -46.90500	 0.0833		 37.09000
455	 43.63900	 -45.73100	 0.0833		 29.35300
456	 44.12600	 -52.45700	 0.0833		 16.63000
457	 44.40600	 -61.20800	 0.0833		 89.64500
458	 44.52100	 -70.07200	 0.0833		 11.84800
459	 44.65400	 -50.87300	 0.0833		 105.93500
460	 44.70000	 -53.54000	 0.0833		 72.38400
461	 45.10900	 -49.99100	 0.0833		 17.98700
462	 45.16800	 -70.73900	 0.0833		 30.70800
463	 45.22300	 -51.04500	 0.0833		 42.31200
464	 45.23300	 -54.96600	 0.0833		 13.30300
465	 45.37800	 -52.93800	 0.0833		 30.49800
466	 45.38700	 -51.50900	 0.0833		 12.06900
467	 45.41600	 -45.14000	 0.0833		 14.61900
468	 45.80600	 -47.48500	 0.0833		 19.79200
469	 45.83300	 -61.63300	 0.0833		 17.89700
470	 45.86100	 -52.58100	 0.0833		 53.98600
471	 45.89600	 -64.18800	 0.0833		 33.09200
472	 45.91300	 -45.62900	 0.0833		 14.78900
473	 45.96300	 -64.98000	 0.0833		 132.05500
474	 45.96600	 -62.18900	 0.0833		 832.71700
475	 46.05500	 -54.91200	 0.0833		 12.91600
476	 46.09000	 -70.12100	 0.0833		 18.69700
477	 46.11700	 -43.56200	 0.0833		 47.92800
478	 46.13500	 -49.52700	 0.0833		 19.74900
479	 46.21800	 -65.88500	 0.0833		 12.79000
480	 46.28300	 -46.41500	 0.0833		 13.69100
481	 46.56100	 -55.47100	 0.0833		 49.25200
482	 46.64700	 -65.11500	 0.0833		 12.83700
483	 46.70400	 -43.14500	 0.0833		 15.06700
484	 46.72900	 -48.27600	 0.0833		 12.11000
485	 46.76400	 -57.08900	 0.0833		 42.34100
486	 46.76400	 -66.09300	 0.0833		 13.43400
487	 46.84200	 -60.72900	 0.0833		 12.73200
488	 46.88800	 -48.95800	 0.0833		 23.54900
489	 46.91000	 -47.29900	 0.0833		 22.18000
490	 47.33600	 -59.94800	 0.0833		 15.71700
491	 47.48800	 -60.97700	 0.0833		 869.84300
492	 47.54500	 -57.51400	 0.0833		 96.78400
493	 47.56400	 -51.19100	 0.0833		 15.68700
494	 47.67900	 -56.65600	 0.0833		 15.32800
495	 47.97600	 -56.53500	 0.0833		 23.08600
496	 47.98900	 -62.01200	 0.0833		 29.56600
497	 47.99900	 -65.40500	 0.0833		 42.81800
498	 48.02400	 -55.69500	 0.0833		 59.56100
499	 48.04100	 -62.93000	 0.0833		 12.43700
500	 48.08300	 -61.38900	 0.0833		 11.47000
501	 48.55600	 -68.33000	 0.0833		 20.69700
502	 48.59800	 -65.80300	 0.0833		 212.36500
503	 48.60100	 -51.08000	 0.0833		 67.51900
504	 48.61800	 -48.13600	 0.0833		 14.75600
505	 49.15700	 -43.86300	 0.0833		 40.32400
506	 49.26900	 -58.01900	 0.0833		 22.40700
507	 49.27200	 -52.61400	 0.0833		 11.56200
508	 49.39000	 -45.53600	 0.0833		 17.45000
509	 49.42900	 -55.10800	 0.0833		 14.04900
510	 49.48500	 -44.24600	 0.0833		 77.44900
511	 49.58800	 -53.53200	 0.0833		 16.88000
512	 49.62900	 -56.16700	 0.0833		 30.09400
513	 49.74100	 -56.84600	 0.0833		 67.35000
514	 49.78500	 -50.01100	 0.0833		 26.77600
515	 49.80400	 -67.65100	 0.0833		 11.79000
516	 49.90100	 -71.14300	 0.0833		 25.20800
517	 50.08800	 -64.33400	 0.0833		 20.55900
518	 50.10300	 -44.02000	 0.0833		 12.93600
519	 50.11700	 -65.02800	 0.0833		 19.60600
520	 50.15900	 -70.48600	 0.0833		 20.86600
521	 50.22600	 -68.27400	 0.0833		 24.26300
522	 50.23400	 -45.25800	 0.0833		 13.75500
523	 50.36000	 -45.17100	 0.0833		 25.09500
524	 50.46600	 -58.32300	 0.0833		 15.81300
525	 50.52800	 -52.09600	 0.0833		 16.74000
526	 50.53300	 -53.91000	 0.0833		 17.08200
527	 50.54800	 -50.71300	 0.0833		 19.68800
528	 50.56700	 -63.12500	 0.0833		 14.26900
529	 50.68200	 -59.00900	 0.0833		 45.87600
530	 50.69800	 -65.71800	 0.0833		 31.90800
531	 50.78900	 -60.44100	 0.0833		 67.09000
532	 50.85800	 -52.44600	 0.0833		 34.90800
533	 51.01900	 -55.34900	 0.0833		 60.48400
534	 51.25300	 -49.45700	 0.0833		 21.28200
535	 51.34500	 -56.48900	 0.0833		 28.96900
536	 51.34900	 -56.59600	 0.0833		 28.92100
537	 51.45700	 -48.79600	 0.0833		 15.86600
538	 51.46700	 -67.36100	 0.0833		 36.02900
539	 51.68400	 -62.40100	 0.0833		 14.82900
540	 51.70500	 -53.61900	 0.0833		 34.12600
541	 52.66600	 -68.66300	 0.0833		 15.97300
542	 306.86800	 -70.11500	 0.0833		 269.05500
543	 308.11700	 -58.30400	 0.0833		 34.04400
544	 308.30600	 -44.59700	 0.0833		 27.82300
545	 308.32800	 -53.26400	 0.0833		 25.31900
546	 308.84300	 -49.97300	 0.0833		 50.82000
547	 308.90900	 -45.05800	 0.0833		 18.64800
548	 308.93300	 -69.72800	 0.0833		 17.32500
549	 308.96500	 -68.77000	 0.0833		 339.10800
550	 308.97100	 -66.03300	 0.0833		 43.16200
551	 309.01600	 -53.35300	 0.0833		 19.66300
552	 309.04900	 -44.13400	 0.0833		 32.99600
553	 309.11000	 -45.70800	 0.0833		 15.96500
554	 309.27500	 -42.40600	 0.0833		 50.47300
555	 309.65800	 -44.48900	 0.0833		 16.59300
556	 309.79600	 -59.28200	 0.0833		 12.58600
557	 309.93400	 -58.36200	 0.0833		 13.89400
558	 309.94500	 -50.02400	 0.0833		 48.05200
559	 309.94900	 -46.10700	 0.0833		 24.97200
560	 310.00600	 -57.58900	 0.0833		 112.57300
561	 310.02700	 -64.55100	 0.0833		 15.33500
562	 310.03700	 -47.76300	 0.0833		 15.11800
563	 310.05400	 -71.24000	 0.0833		 15.62700
564	 310.29100	 -52.96100	 0.0833		 13.93100
565	 310.30200	 -52.18500	 0.0833		 21.22900
566	 310.30500	 -61.66400	 0.0833		 11.99500
567	 310.33900	 -62.23600	 0.0833		 14.68800
568	 310.50000	 -70.83000	 0.0833		 25.93300
569	 310.80100	 -51.07500	 0.0833		 13.62100
570	 310.82300	 -62.93300	 0.0833		 83.06600
571	 310.87300	 -62.57100	 0.0833		 15.26400
572	 310.96500	 -66.05000	 0.0833		 18.36100
573	 311.22700	 -54.93500	 0.0833		 29.25400
574	 311.27000	 -53.35300	 0.0833		 15.61300
575	 311.35000	 -63.00500	 0.0833		 20.51400
576	 311.41100	 -55.43600	 0.0833		 44.19700
577	 311.44000	 -61.55000	 0.0833		 26.80100
578	 311.46100	 -51.11000	 0.0833		 31.41000
579	 311.71600	 -65.45300	 0.0833		 33.55400
580	 311.80000	 -45.98400	 0.0833		 15.07300
581	 311.87800	 -48.03500	 0.0833		 13.27300
582	 312.10200	 -52.70300	 0.0833		 48.16900
583	 312.10900	 -68.07600	 0.0833		 50.28200
584	 312.13000	 -58.70800	 0.0833		 47.31500
585	 312.24100	 -45.73300	 0.0833		 27.31100
586	 312.36700	 -46.47900	 0.0833		 17.96600
587	 312.52800	 -42.53000	 0.0833		 17.57700
588	 312.54400	 -49.46000	 0.0833		 39.26900
589	 312.65200	 -45.72800	 0.0833		 25.95800
590	 312.79800	 -45.44600	 0.0833		 79.79400
591	 312.98100	 -70.16500	 0.0833		 13.56300
592	 313.01300	 -57.07100	 0.0833		 32.52800
593	 313.02900	 -52.80000	 0.0833		 12.72900
594	 313.03100	 -65.38400	 0.0833		 69.50000
595	 313.05300	 -55.55500	 0.0833		 64.71200
596	 313.06400	 -43.98200	 0.0833		 14.95600
597	 313.27900	 -62.92900	 0.0833		 83.50800
598	 313.44600	 -43.33000	 0.0833		 12.46000
599	 313.50200	 -42.72000	 0.0833		 23.11700
600	 313.70400	 -54.66100	 0.0833		 68.36600
601	 313.74500	 -47.50400	 0.0833		 19.47300
602	 314.04800	 -49.07300	 0.0833		 16.13200
603	 314.06400	 -47.25300	 0.0833		 1374.57600
604	 314.12900	 -58.33800	 0.0833		 131.13000
605	 314.20500	 -68.37300	 0.0833		 12.78700
606	 314.30200	 -49.02800	 0.0833		 44.04000
607	 314.40800	 -57.01100	 0.0833		 76.57900
608	 314.48100	 -66.48500	 0.0833		 36.66900
609	 314.53600	 -48.63700	 0.0833		 14.50000
610	 314.54300	 -44.20300	 0.0833		 29.30100
611	 314.65600	 -57.94600	 0.0833		 44.18100
612	 314.79800	 -67.75100	 0.0833		 44.35600
613	 315.29200	 -44.86000	 0.0833		 54.38300
614	 315.30600	 -61.83600	 0.0833		 17.51900
615	 315.48900	 -42.33100	 0.0833		 47.36300
616	 315.64400	 -53.38800	 0.0833		 11.52600
617	 315.85700	 -43.95000	 0.0833		 16.70900
618	 315.87000	 -65.33500	 0.0833		 24.79200
619	 315.90600	 -49.83100	 0.0833		 15.50900
620	 315.91400	 -68.19700	 0.0833		 29.38400
621	 315.91500	 -62.54000	 0.0833		 56.91500
622	 316.02100	 -51.95300	 0.0833		 53.15700
623	 316.05900	 -45.79700	 0.0833		 15.55900
624	 316.24900	 -48.81900	 0.0833		 159.06000
625	 316.34700	 -51.76700	 0.0833		 21.76200
626	 316.41400	 -54.22800	 0.0833		 22.28100
627	 316.45400	 -46.34700	 0.0833		 15.38500
628	 316.53000	 -71.36500	 0.0833		 28.59800
629	 316.56900	 -58.05200	 0.0833		 39.22300
630	 316.65300	 -63.71400	 0.0833		 12.66300
631	 316.74600	 -55.98500	 0.0833		 28.02900
632	 316.75400	 -65.79200	 0.0833		 86.25000
633	 316.75600	 -50.20600	 0.0833		 20.18600
634	 316.84200	 -41.77200	 0.0833		 15.49000
635	 316.90100	 -51.53900	 0.0833		 17.07500
636	 316.93000	 -48.47100	 0.0833		 21.85600
637	 316.99600	 -62.26800	 0.0833		 31.83600
638	 317.20600	 -48.77700	 0.0833		 73.48500
639	 317.22200	 -66.61900	 0.0833		 141.85200
640	 317.38200	 -41.18100	 0.0833		 115.46800
641	 317.49300	 -48.04200	 0.0833		 26.91400
642	 317.55100	 -59.33100	 0.0833		 14.64300
643	 317.65500	 -63.41600	 0.0833		 13.95800
644	 317.79500	 -55.13800	 0.0833		 21.88300
645	 318.06800	 -44.21200	 0.0833		 32.73600
646	 318.09300	 -44.89800	 0.0833		 15.78800
647	 318.23400	 -48.30100	 0.0833		 26.03100
648	 318.36800	 -61.59200	 0.0833		 15.61400
649	 318.45200	 -59.30200	 0.0833		 61.76600
650	 318.56600	 -68.84500	 0.0833		 46.58600
651	 318.70600	 -61.95200	 0.0833		 29.36200
652	 318.89000	 -60.87700	 0.0833		 11.88700
653	 318.98200	 -42.17400	 0.0833		 12.00500
654	 319.12000	 -55.45700	 0.0833		 38.04900
655	 319.30000	 -58.40400	 0.0833		 32.04700
656	 319.34100	 -55.08700	 0.0833		 39.82700
657	 319.63600	 -44.56400	 0.0833		 28.56000
658	 319.69500	 -42.52700	 0.0833		 15.65000
659	 319.90100	 -45.76000	 0.0833		 137.30500
660	 320.03200	 -62.03100	 0.0833		 13.21700
661	 320.05600	 -41.62000	 0.0833		 12.70400
662	 320.10300	 -51.05500	 0.0833		 15.97800
663	 320.27100	 -61.19000	 0.0833		 165.57000
664	 320.48400	 -64.07200	 0.0833		 21.42700
665	 320.59400	 -56.00600	 0.0833		 33.20200
666	 320.60000	 -49.67600	 0.0833		 21.12300
667	 320.87100	 -68.94700	 0.0833		 14.01000
668	 320.94200	 -47.22900	 0.0833		 37.10600
669	 320.99900	 -52.79500	 0.0833		 28.74000
670	 321.01800	 -60.46900	 0.0833		 18.30100
671	 321.11400	 -49.80600	 0.0833		 65.66300
672	 321.29500	 -69.95900	 0.0833		 16.79500
673	 321.55600	 -55.35400	 0.0833		 18.28000
674	 321.61400	 -53.82000	 0.0833		 13.62000
675	 321.62300	 -46.10300	 0.0833		 193.03900
676	 321.68300	 -59.03700	 0.0833		 41.96900
677	 321.93900	 -57.76000	 0.0833		 45.59500
678	 321.94600	 -47.43000	 0.0833		 25.42300
679	 321.99400	 -43.13900	 0.0833		 16.08700
680	 321.99600	 -59.70200	 0.0833		 42.22800
681	 322.28400	 -63.36000	 0.0833		 13.75400
682	 322.29200	 -45.98000	 0.0833		 22.78100
683	 322.36600	 -48.01000	 0.0833		 25.65400
684	 322.37500	 -41.79800	 0.0833		 14.05500
685	 322.38300	 -41.50500	 0.0833		 17.42400
686	 322.53500	 -48.34100	 0.0833		 12.94500
687	 322.71200	 -45.26900	 0.0833		 53.85500
688	 322.81700	 -58.99900	 0.0833		 20.68400
689	 322.85100	 -52.03100	 0.0833		 14.36000
690	 323.02900	 -54.34500	 0.0833		 43.47400
691	 323.11000	 -45.63400	 0.0833		 24.00000
692	 323.39100	 -41.97400	 0.0833		 23.27600
693	 323.49600	 -42.32200	 0.0833		 20.51700
694	 323.52500	 -53.57800	 0.0833		 12.82700
695	 323.55900	 -65.22400	 0.0833		 137.69500
696	 323.81500	 -70.73200	 0.0833		 28.17500
697	 323.82600	 -50.11900	 0.0833		 78.59200
698	 323.84400	 -60.64500	 0.0833		 12.53200
699	 323.84900	 -42.26000	 0.0833		 14.67500
700	 323.97200	 -68.80300	 0.0833		 40.80700
701	 324.01200	 -49.92700	 0.0833		 20.23900
702	 324.03900	 -60.68300	 0.0833		 13.72000
703	 324.06500	 -50.30600	 0.0833		 18.08100
704	 324.09700	 -63.59500	 0.0833		 44.07600
705	 324.25800	 -61.32900	 0.0833		 21.25400
706	 324.28900	 -51.39800	 0.0833		 12.29800
707	 324.50100	 -46.78400	 0.0833		 41.76700
708	 324.60100	 -49.52100	 0.0833		 15.71600
709	 324.75000	 -47.52500	 0.0833		 13.48700
710	 324.81000	 -67.53200	 0.0833		 17.30500
711	 324.84500	 -42.59700	 0.0833		 76.84400
712	 324.86100	 -42.13400	 0.0833		 11.95600
713	 325.25900	 -61.49400	 0.0833		 21.24200
714	 325.30600	 -71.16900	 0.0833		 14.77300
715	 325.31800	 -55.86000	 0.0833		 28.58600
716	 325.33300	 -55.07800	 0.0833		 26.12800
717	 325.44600	 -64.18500	 0.0833		 388.21800
718	 325.76800	 -62.53000	 0.0833		 28.23400
719	 325.88200	 -43.22100	 0.0833		 22.33200
720	 326.01500	 -41.63900	 0.0833		 15.39900
721	 326.21100	 -69.77500	 0.0833		 58.33700
722	 326.23600	 -51.83900	 0.0833		 18.34600
723	 326.49100	 -46.91300	 0.0833		 21.44100
724	 326.93200	 -55.44200	 0.0833		 55.68200
725	 326.94600	 -57.81300	 0.0833		 13.13000
726	 326.98400	 -51.68800	 0.0833		 11.83200
727	 327.07600	 -67.75800	 0.0833		 12.72700
728	 327.10300	 -57.23500	 0.0833		 20.94000
729	 327.17200	 -68.37800	 0.0833		 13.79400
730	 327.36800	 -64.48500	 0.0833		 20.43400
731	 327.45500	 -65.07200	 0.0833		 21.48900
732	 327.54600	 -65.54100	 0.0833		 22.15700
733	 327.55000	 -50.45400	 0.0833		 12.43700
734	 327.56400	 -68.04200	 0.0833		 98.31900
735	 327.75800	 -64.15000	 0.0833		 36.74000
736	 327.76300	 -57.68800	 0.0833		 11.94300
737	 327.83600	 -42.56900	 0.0833		 26.11900
738	 327.86200	 -55.34500	 0.0833		 28.22900
739	 327.97600	 -53.28100	 0.0833		 29.26900
740	 328.21300	 -48.93800	 0.0833		 13.78800
741	 328.52600	 -51.84200	 0.0833		 28.21500
742	 328.58600	 -45.88400	 0.0833		 24.98500
743	 328.59100	 -69.38900	 0.0833		 22.07500
744	 328.68900	 -57.43100	 0.0833		 31.53000
745	 328.72900	 -51.73200	 0.0833		 11.52700
746	 328.74500	 -59.51000	 0.0833		 20.96000
747	 328.92400	 -54.00900	 0.0833		 37.91500
748	 328.97400	 -53.47300	 0.0833		 20.88900
749	 329.26700	 -46.68300	 0.0833		 20.16900
750	 329.28900	 -69.68300	 0.0833		 1114.52400
751	 329.38300	 -70.76000	 0.0833		 11.90500
752	 329.43000	 -46.07300	 0.0833		 16.88300
753	 329.46000	 -64.04500	 0.0833		 26.55300
754	 329.66200	 -47.33200	 0.0833		 14.84800
755	 329.74000	 -51.26600	 0.0833		 11.50800
756	 329.82600	 -46.03300	 0.0833		 44.71800
757	 329.95700	 -45.06500	 0.0833		 24.08300
758	 329.97300	 -62.09000	 0.0833		 59.31600
759	 329.99200	 -47.87200	 0.0833		 56.85300
760	 330.01500	 -54.93000	 0.0833		 72.98200
761	 330.10000	 -56.18000	 0.0833		 17.97700
762	 330.22300	 -55.33700	 0.0833		 150.16600
763	 330.29200	 -61.54200	 0.0833		 34.13900
764	 330.41000	 -56.77600	 0.0833		 15.87200
765	 330.42400	 -46.53300	 0.0833		 14.93500
766	 330.44300	 -64.95700	 0.0833		 17.61800
767	 330.54100	 -49.42800	 0.0833		 51.60900
768	 330.72100	 -56.59700	 0.0833		 30.90700
769	 330.74900	 -49.62300	 0.0833		 55.83100
770	 330.97300	 -47.77400	 0.0833		 14.83500
771	 331.00300	 -61.50500	 0.0833		 246.63600
772	 331.17600	 -58.11700	 0.0833		 32.15400
773	 331.26600	 -55.30000	 0.0833		 14.03200
774	 331.33000	 -42.36800	 0.0833		 39.75000
775	 331.82300	 -63.42500	 0.0833		 33.67600
776	 331.85500	 -45.72900	 0.0833		 33.37000
777	 331.91200	 -57.56300	 0.0833		 14.79000
778	 331.92600	 -53.77800	 0.0833		 610.81800
779	 332.03200	 -45.16200	 0.0833		 41.52900
780	 332.08700	 -64.07000	 0.0833		 82.28200
781	 332.20300	 -63.42800	 0.0833		 111.12400
782	 332.25400	 -68.10200	 0.0833		 26.66300
783	 332.31400	 -47.17200	 0.0833		 90.98600
784	 332.47800	 -41.61800	 0.0833		 16.14200
785	 332.55900	 -50.52200	 0.0833		 33.81800
786	 332.59300	 -45.72100	 0.0833		 13.69000
787	 332.62800	 -55.14700	 0.0833		 41.92900
788	 332.66200	 -50.45200	 0.0833		 72.48500
789	 332.89100	 -48.85300	 0.0833		 152.38800
790	 332.95500	 -45.33200	 0.0833		 21.72300
791	 333.00600	 -70.64900	 0.0833		 20.62400
792	 333.00700	 -62.33400	 0.0833		 16.21700
793	 333.36000	 -58.42400	 0.0833		 11.47400
794	 333.40000	 -63.49800	 0.0833		 78.02600
795	 333.41700	 -44.95100	 0.0833		 17.99900
796	 333.56700	 -44.09000	 0.0833		 29.56900
797	 333.67900	 -59.59800	 0.0833		 14.54400
798	 333.94100	 -47.24900	 0.0833		 13.05900
799	 333.94200	 -66.15200	 0.0833		 35.36600
800	 334.09500	 -52.63600	 0.0833		 19.46200
801	 334.17700	 -56.62800	 0.0833		 17.81700
802	 334.22600	 -45.36800	 0.0833		 24.05000
803	 334.46100	 -70.74100	 0.0833		 176.56000
804	 334.56600	 -70.13500	 0.0833		 19.69700
805	 334.57200	 -50.64800	 0.0833		 25.07500
806	 334.60800	 -64.90600	 0.0833		 17.27000
807	 334.76900	 -69.73700	 0.0833		 15.41800
808	 334.91200	 -48.41100	 0.0833		 21.24700
809	 334.92900	 -52.90800	 0.0833		 28.85500
810	 334.97100	 -63.56100	 0.0833		 40.85100
811	 335.20300	 -43.75400	 0.0833		 26.77800
812	 335.36500	 -52.42800	 0.0833		 18.75700
813	 335.75800	 -63.64900	 0.0833		 15.22900
814	 335.80800	 -45.40800	 0.0833		 14.56100
815	 335.98900	 -48.47500	 0.0833		 26.24500
816	 336.16800	 -46.67500	 0.0833		 48.36800
817	 336.25600	 -42.51300	 0.0833		 25.32300
818	 336.63400	 -43.28700	 0.0833		 15.39200
819	 336.66600	 -53.28500	 0.0833		 15.28000
820	 336.74500	 -62.63100	 0.0833		 14.35900
821	 336.75200	 -52.56000	 0.0833		 17.73300
822	 336.77900	 -52.33400	 0.0833		 46.90800
823	 337.02000	 -56.00000	 0.0833		 14.12500
824	 337.26200	 -69.16900	 0.0833		 445.33100
825	 337.55100	 -63.17800	 0.0833		 29.73800
826	 337.57600	 -61.78400	 0.0833		 22.00100
827	 337.67000	 -54.25600	 0.0833		 14.24400
828	 337.68300	 -63.49000	 0.0833		 37.50900
829	 337.72900	 -44.28300	 0.0833		 256.63900
830	 337.76900	 -66.31200	 0.0833		 26.52900
831	 337.78800	 -62.52100	 0.0833		 107.72300
832	 337.89200	 -45.02400	 0.0833		 19.77700
833	 337.91900	 -47.00200	 0.0833		 18.66700
834	 338.03800	 -66.15500	 0.0833		 33.49500
835	 338.26400	 -54.48700	 0.0833		 17.35600
836	 338.50900	 -48.05800	 0.0833		 24.91500
837	 338.58900	 -54.09900	 0.0833		 56.58500
838	 338.59000	 -44.02200	 0.0833		 42.63700
839	 338.80000	 -48.60500	 0.0833		 748.46900
840	 338.87200	 -63.92300	 0.0833		 21.40900
841	 338.93600	 -66.96400	 0.0833		 24.27800
842	 338.96400	 -51.53200	 0.0833		 26.58800
843	 339.01700	 -50.92500	 0.0833		 13.96500
844	 339.02600	 -44.93600	 0.0833		 18.75400
845	 339.04700	 -62.60700	 0.0833		 30.27300
846	 339.17300	 -44.66300	 0.0833		 23.28400
847	 339.30500	 -45.77300	 0.0833		 21.10800
848	 339.60100	 -51.24100	 0.0833		 43.48200
849	 339.77000	 -55.43300	 0.0833		 48.16900
850	 339.80200	 -57.01900	 0.0833		 263.14500
851	 339.86800	 -54.98800	 0.0833		 11.61900
852	 339.89200	 -56.79100	 0.0833		 14.50500
853	 340.06700	 -52.69000	 0.0833		 20.75300
854	 340.07000	 -52.53500	 0.0833		 21.85000
855	 340.29100	 -46.59100	 0.0833		 11.60400
856	 340.43400	 -68.03000	 0.0833		 17.13800
857	 340.60600	 -60.74000	 0.0833		 25.00600
858	 340.64800	 -42.08200	 0.0833		 31.99500
859	 340.66200	 -46.89200	 0.0833		 13.50000
860	 340.71300	 -53.78500	 0.0833		 11.67000
861	 340.78900	 -62.84800	 0.0833		 126.79700
862	 340.78900	 -46.09400	 0.0833		 11.99600
863	 340.97300	 -56.94300	 0.0833		 47.17500
864	 341.03500	 -68.86000	 0.0833		 13.21800
865	 341.24000	 -49.53600	 0.0833		 34.12800
866	 341.26900	 -43.54100	 0.0833		 29.35600
867	 341.28300	 -41.42200	 0.0833		 21.50600
868	 341.37600	 -59.92200	 0.0833		 16.85300
869	 341.46800	 -56.85800	 0.0833		 21.44700
870	 341.47900	 -41.70400	 0.0833		 14.13900
871	 341.56700	 -56.13200	 0.0833		 181.25400
872	 341.92000	 -44.62600	 0.0833		 15.60900
873	 342.00100	 -48.90700	 0.0833		 55.13300
874	 342.15100	 -59.56600	 0.0833		 18.45100
875	 342.15400	 -43.05400	 0.0833		 15.85400
876	 342.59000	 -42.11200	 0.0833		 22.18600
877	 342.60000	 -54.21700	 0.0833		 12.52400
878	 342.86700	 -44.82900	 0.0833		 11.78100
879	 342.90100	 -54.88600	 0.0833		 30.23800
880	 342.91100	 -58.02000	 0.0833		 39.73600
881	 343.06200	 -57.96500	 0.0833		 12.42000
882	 343.42900	 -59.71200	 0.0833		 13.29400
883	 343.42900	 -57.83600	 0.0833		 13.64900
884	 343.45400	 -58.77100	 0.0833		 21.65700
885	 343.48800	 -50.42300	 0.0833		 15.20800
886	 343.58800	 -51.81600	 0.0833		 45.34100
887	 343.64700	 -41.67100	 0.0833		 108.14300
888	 343.68400	 -42.06200	 0.0833		 20.75900
889	 343.73700	 -42.38300	 0.0833		 11.88600
890	 343.73900	 -59.43400	 0.0833		 118.61700
891	 343.87400	 -69.10300	 0.0833		 16.35900
892	 343.95300	 -52.76600	 0.0833		 39.46100
893	 343.95700	 -65.61900	 0.0833		 25.27300
894	 344.03800	 -42.28900	 0.0833		 16.85500
895	 344.05000	 -71.25200	 0.0833		 20.91000
896	 344.10900	 -65.55400	 0.0833		 47.66100
897	 344.12400	 -43.00700	 0.0833		 16.61000
898	 344.16600	 -46.29900	 0.0833		 27.43900
899	 344.18800	 -51.98300	 0.0833		 20.02800
900	 344.55900	 -68.42200	 0.0833		 14.96300
901	 344.57400	 -55.42700	 0.0833		 16.33200
902	 344.64600	 -70.23700	 0.0833		 104.07300
903	 344.71100	 -52.34900	 0.0833		 24.55200
904	 344.85500	 -48.31200	 0.0833		 38.00600
905	 344.86100	 -44.90900	 0.0833		 14.49800
906	 344.98800	 -51.06000	 0.0833		 15.39300
907	 345.02400	 -43.00800	 0.0833		 25.31200
908	 345.20300	 -60.54100	 0.0833		 15.23500
909	 345.22900	 -52.90200	 0.0833		 23.72300
910	 345.39700	 -64.06700	 0.0833		 44.70100
911	 345.40400	 -59.22400	 0.0833		 42.35000
912	 345.49300	 -53.73200	 0.0833		 17.33000
913	 345.60900	 -64.34500	 0.0833		 12.23200
914	 345.66100	 -45.57300	 0.0833		 82.80700
915	 345.74400	 -58.37700	 0.0833		 15.19700
916	 345.86300	 -42.44900	 0.0833		 20.02700
917	 345.93900	 -68.12200	 0.0833		 158.72900
918	 345.96000	 -54.11500	 0.0833		 92.87600
919	 346.14000	 -50.66300	 0.0833		 11.82600
920	 346.29600	 -42.32600	 0.0833		 30.22900
921	 346.43800	 -71.04600	 0.0833		 26.35600
922	 346.71500	 -67.10600	 0.0833		 14.77600
923	 346.92000	 -52.84700	 0.0833		 16.27700
924	 346.96200	 -41.55500	 0.0833		 35.95100
925	 347.00800	 -52.32000	 0.0833		 23.48200
926	 347.08000	 -66.20100	 0.0833		 11.67200
927	 347.14600	 -58.78400	 0.0833		 13.67700
928	 347.21600	 -45.97200	 0.0833		 169.78500
929	 347.25300	 -50.85500	 0.0833		 78.58900
930	 347.49900	 -61.14500	 0.0833		 19.71200
931	 347.62400	 -59.68900	 0.0833		 21.89800
932	 347.76300	 -60.75600	 0.0833		 26.23000
933	 347.78700	 -56.41300	 0.0833		 15.04500
934	 347.93000	 -62.84200	 0.0833		 16.36500
935	 348.14200	 -65.56400	 0.0833		 36.33600
936	 348.21100	 -53.60000	 0.0833		 12.62400
937	 348.22300	 -44.88500	 0.0833		 41.96500
938	 348.22700	 -41.46100	 0.0833		 14.03700
939	 348.25000	 -66.12300	 0.0833		 47.39200
940	 348.26500	 -48.87800	 0.0833		 11.72300
941	 348.33500	 -66.62600	 0.0833		 21.39600
942	 348.35400	 -53.72600	 0.0833		 23.31800
943	 348.38600	 -52.00700	 0.0833		 39.73500
944	 348.44200	 -44.28000	 0.0833		 23.91700
945	 348.45900	 -47.49200	 0.0833		 22.60000
946	 348.47300	 -67.93400	 0.0833		 22.31800
947	 348.53400	 -44.93700	 0.0833		 125.47800
948	 348.54900	 -56.29100	 0.0833		 28.14500
949	 348.58800	 -63.00300	 0.0833		 14.00600
950	 348.59300	 -63.29900	 0.0833		 15.25800
951	 348.61400	 -47.22300	 0.0833		 14.47900
952	 348.63400	 -43.96300	 0.0833		 22.22600
953	 348.92700	 -50.31600	 0.0833		 280.08100
954	 349.03900	 -42.59500	 0.0833		 22.55800
955	 349.08200	 -43.63800	 0.0833		 86.44300
956	 349.10800	 -47.50200	 0.0833		 15.31900
957	 349.21300	 -55.13100	 0.0833		 22.86000
958	 349.25000	 -52.17200	 0.0833		 12.09200
959	 349.30900	 -60.34400	 0.0833		 11.99700
960	 349.32200	 -62.25700	 0.0833		 65.12000
961	 349.37600	 -45.58100	 0.0833		 12.09200
962	 349.47700	 -42.23900	 0.0833		 12.66600
963	 349.59100	 -42.38000	 0.0833		 18.15100
964	 349.62800	 -48.31900	 0.0833		 98.35000
965	 349.65700	 -67.89700	 0.0833		 205.96400
966	 349.67700	 -43.23600	 0.0833		 19.96300
967	 349.77100	 -42.12100	 0.0833		 69.31700
968	 349.81000	 -53.53600	 0.0833		 33.51700
969	 349.93000	 -46.84300	 0.0833		 48.24200
970	 350.08400	 -46.43100	 0.0833		 12.37400
971	 350.14800	 -47.17900	 0.0833		 30.40700
972	 350.19300	 -53.16500	 0.0833		 32.94300
973	 350.24400	 -54.04600	 0.0833		 57.32500
974	 350.42800	 -64.63300	 0.0833		 72.26600
975	 350.44000	 -56.34600	 0.0833		 12.26300
976	 350.63000	 -55.86300	 0.0833		 21.15700
977	 350.66100	 -42.35500	 0.0833		 24.64900
978	 350.71300	 -53.37000	 0.0833		 36.75300
979	 350.76000	 -52.36600	 0.0833		 11.64800
980	 350.80300	 -48.79400	 0.0833		 17.34900
981	 351.00300	 -63.75600	 0.0833		 18.78200
982	 351.14200	 -42.85100	 0.0833		 14.61300
983	 351.29600	 -56.94400	 0.0833		 19.02300
984	 351.35800	 -48.01100	 0.0833		 105.18600
985	 351.39300	 -71.16100	 0.0833		 17.20100
986	 351.60200	 -41.68100	 0.0833		 33.40700
987	 351.66000	 -61.10200	 0.0833		 64.57000
988	 351.66800	 -68.67000	 0.0833		 14.78200
989	 351.81100	 -43.42000	 0.0833		 14.12500
990	 351.90300	 -57.16400	 0.0833		 12.33000
991	 351.91600	 -45.18900	 0.0833		 59.61100
992	 351.92900	 -52.43000	 0.0833		 17.72100
993	 351.94400	 -66.74100	 0.0833		 93.63100
994	 352.01400	 -45.48700	 0.0833		 16.49000
995	 352.01500	 -41.30700	 0.0833		 41.21100
996	 352.01600	 -56.50500	 0.0833		 19.32700
997	 352.31900	 -47.51100	 0.0833		 1408.08900
998	 352.32900	 -49.93300	 0.0833		 346.14500
999	 352.65200	 -45.67300	 0.0833		 95.72000
1000	 352.65500	 -65.32700	 0.0833		 18.67100
1001	 353.07300	 -41.32000	 0.0833		 231.16800
1002	 353.07500	 -70.96400	 0.0833		 15.32200
1003	 353.21400	 -58.42700	 0.0833		 27.08800
1004	 353.38300	 -42.30700	 0.0833		 17.92300
1005	 353.60300	 -41.43400	 0.0833		 24.79800
1006	 353.68000	 -52.85800	 0.0833		 119.54100
1007	 353.74900	 -47.55100	 0.0833		 20.94100
1008	 353.80100	 -66.61400	 0.0833		 28.16800
1009	 353.98800	 -53.18700	 0.0833		 11.58300
1010	 354.04300	 -52.60900	 0.0833		 313.57200
1011	 354.11800	 -48.12900	 0.0833		 82.24500
1012	 354.13000	 -63.94000	 0.0833		 27.66900
1013	 354.13500	 -41.26500	 0.0833		 372.23800
1014	 354.15200	 -66.96500	 0.0833		 36.61500
1015	 354.19800	 -41.57900	 0.0833		 31.35800
1016	 354.23400	 -48.79600	 0.0833		 30.86400
1017	 354.34000	 -52.27700	 0.0833		 43.68800
1018	 354.36000	 -46.22000	 0.0833		 16.99400
1019	 354.36400	 -59.02200	 0.0833		 68.86900
1020	 354.90200	 -66.94800	 0.0833		 52.03900
1021	 354.90900	 -66.14700	 0.0833		 17.23600
1022	 355.18700	 -46.53600	 0.0833		 20.81200
1023	 355.32800	 -58.27200	 0.0833		 28.50600
1024	 355.54800	 -68.42000	 0.0833		 22.96600
1025	 355.64300	 -44.58000	 0.0833		 11.83900
1026	 355.82300	 -57.16400	 0.0833		 96.65600
1027	 355.85500	 -70.63700	 0.0833		 38.31900
1028	 355.86100	 -58.40900	 0.0833		 12.36900
1029	 355.86400	 -56.44200	 0.0833		 84.74000
1030	 356.12600	 -50.66900	 0.0833		 13.37300
1031	 356.18300	 -61.13800	 0.0833		 42.88400
1032	 356.21400	 -47.49600	 0.0833		 19.17100
1033	 356.21700	 -59.08200	 0.0833		 35.82700
1034	 356.36800	 -59.89300	 0.0833		 29.83300
1035	 356.52100	 -64.26300	 0.0833		 15.47000
1036	 356.78400	 -57.30600	 0.0833		 18.76300
1037	 356.82600	 -51.18100	 0.0833		 179.64400
1038	 356.92400	 -49.77900	 0.0833		 233.93700
1039	 356.93600	 -42.34800	 0.0833		 14.43800
1040	 356.97000	 -59.26200	 0.0833		 19.62600
1041	 357.11300	 -60.82200	 0.0833		 171.54800
1042	 357.21400	 -51.05900	 0.0833		 29.81500
1043	 357.26600	 -66.04800	 0.0833		 16.76400
1044	 357.34800	 -49.54600	 0.0833		 473.98600
1045	 357.84500	 -70.62300	 0.0833		 21.74400
1046	 357.84500	 -70.46600	 0.0833		 12.53500
1047	 357.89000	 -43.00100	 0.0833		 71.05600
1048	 358.00100	 -60.95700	 0.0833		 11.56500
1049	 358.06500	 -64.82200	 0.0833		 13.22300
1050	 358.26000	 -55.50300	 0.0833		 20.24200
1051	 358.29200	 -48.10600	 0.0833		 110.91900
1052	 358.34400	 -58.95800	 0.0833		 15.68000
1053	 358.86500	 -45.23000	 0.0833		 28.26400
1054	 358.90900	 -54.31200	 0.0833		 42.90400
1055	 359.01000	 -51.21900	 0.0833		 15.40100
1056	 359.01100	 -68.32900	 0.0833		 222.88900
1057	 359.01800	 -66.31000	 0.0833		 11.68500
1058	 359.11400	 -48.75900	 0.0833		 19.69200
1059	 359.33300	 -48.64300	 0.0833		 106.92400
1060	 359.35600	 -45.29100	 0.0833		 14.86300
1061	 359.37700	 -41.42300	 0.0833		 14.74100
1062	 359.43200	 -59.59500	 0.0833		 11.45600
1063	 359.46500	 -53.19000	 0.0833		 864.24300
1064	 359.50400	 -45.92900	 0.0833		 281.78100
1065	 359.58700	 -69.46800	 0.0833		 18.95800
1066	 359.62100	 -67.54600	 0.0833		 15.70400
1067	 359.69400	 -60.88200	 0.0833		 176.81200
1068	 359.70600	 -44.20700	 0.0833		 11.71100
1069	 359.83300	 -60.94700	 0.0833		 100.16400
1070	 359.94000	 -50.71300	 0.0833		 51.75000
#
# The following are the SZ clusters.
#
1071	 4.85600	 -68.05200	 0.0833		 11.79000
1072	 10.20400	 -44.14300	 0.0833		 17.48200
1073	 15.72200	 -49.26700	 0.0833		 39.39700
1074	 34.59900	 -66.90000	 0.0833		 14.86100
1075	 38.06800	 -44.35900	 0.0833		 20.09400
1076	 38.68300	 -58.52600	 0.0833		 11.76100
1077	 40.16100	 -59.77000	 0.0833		 12.07700
1078	 40.90600	 -48.56500	 0.0833		 13.52000
1079	 43.57900	 -58.95600	 0.0833		 13.23600
1080	 46.06200	 -44.03600	 0.0833		 13.91000
1081	 316.52100	 -58.74600	 0.0833		 23.48700
1082	 342.18500	 -44.53600	 0.0833		 37.12500
1083	 344.75500	 -60.96100	 0.0833		 11.93000
1084	 354.35500	 -59.71000	 0.0833		 18.52700
1085	 356.18100	 -42.73000	 0.0833		 27.36100
